EXPLAIN
TAG	QCM
TITLE	LABEL	Quartz Crystal Microbalance	Test &Identifier
DATE	LABEL	04/06/2014	Date
TIME	LABEL	16:13:46	Time
AREAOFOVERLAP	QUANT	2.05000E-001	Area (cm^2)
CALIBRATIONFACTOR	QUANT	226.000000	Calibration Factor (Hz cm^2/ug)
CENTERFREQ	QUANT	9.98241E+006	Center Frequency (Hz)
FREQSTEP	QUANT	2.00000E-001	(Hz)
FITMETH	IQUANT	1	Fit Method
QCMDESCRIPTION	LABEL	Test Identifier	Description
QCMCURVE	DTABLE
	t	fs	fp	chisq	As	Ap
	s	MHz	MHz	arb	Mag	Mag
	0.150000	9.98042421	9.98550581	7.980E-007	1.88345051	2.39888930
	0.435000	9.98042461	9.98550661	7.858E-007	1.88341510	2.39889288
	0.695000	9.98042661	9.98550621	8.080E-007	1.88340425	2.39888000
	0.955000	9.98042621	9.98550661	7.899E-007	1.88345039	2.39891410
	1.220000	9.98042541	9.98550701	7.836E-007	1.88336873	2.39894080
	1.480000	9.98042641	9.98550661	7.962E-007	1.88343906	2.39895248
	1.745000	9.98042681	9.98550681	8.052E-007	1.88330865	2.39887857
	2.005000	9.98042741	9.98550601	8.072E-007	1.88337278	2.39891744
	2.260000	9.98042681	9.98550641	7.957E-007	1.88327718	2.39880395
	2.520000	9.98042721	9.98550661	7.936E-007	1.88318264	2.39879155
	2.775000	9.98042821	9.98550581	8.307E-007	1.88335538	2.39892030
	3.035000	9.98042721	9.98550701	8.069E-007	1.88336706	2.39895511
	3.300000	9.98042741	9.98550721	8.011E-007	1.88324666	2.39888597
	3.560000	9.98042801	9.98550621	8.086E-007	1.88331461	2.39886451
	3.815000	9.98042821	9.98550661	8.044E-007	1.88325500	2.39889622
	4.070000	9.98042861	9.98550681	8.241E-007	1.88326395	2.39888167
	4.325000	9.98042861	9.98550661	8.045E-007	1.88328874	2.39890003
	4.585000	9.98042761	9.98550721	7.910E-007	1.88327062	2.39886665
	4.865000	9.98042601	9.98550861	7.701E-007	1.88321936	2.39888334
	5.155000	9.98042601	9.98550841	7.679E-007	1.88317072	2.39886451
	5.445000	9.98042561	9.98550881	7.700E-007	1.88303280	2.39875531
	5.735000	9.98042641	9.98550781	7.757E-007	1.88308012	2.39871716
	6.020000	9.98042741	9.98550721	7.937E-007	1.88308036	2.39879537
	6.305000	9.98042621	9.98550921	7.751E-007	1.88311386	2.39879537
	6.595000	9.98042661	9.98550801	7.787E-007	1.88313055	2.39885330
	6.885000	9.98042621	9.98550781	7.773E-007	1.88313329	2.39885879
	7.175000	9.98042581	9.98550861	7.612E-007	1.88314223	2.39889765
	7.460000	9.98042541	9.98550821	7.779E-007	1.88329315	2.39891624
	7.745000	9.98042621	9.98550721	8.012E-007	1.88332033	2.39893246
	8.045000	9.98042661	9.98550721	7.740E-007	1.88320470	2.39886093
	8.340000	9.98042681	9.98550781	7.830E-007	1.88308835	2.39880848
	8.625000	9.98042581	9.98550901	7.586E-007	1.88309932	2.39881015
	8.925000	9.98042621	9.98550921	7.778E-007	1.88305986	2.39880466
	9.215000	9.98042581	9.98550861	7.603E-007	1.88311279	2.39882517
	9.495000	9.98043001	9.98550141	2.942E-006	1.88302612	2.39963150
	9.780000	9.98042941	9.98550721	1.089E-006	1.88273942	2.39883780
	10.065000	9.98042801	9.98550741	7.920E-007	1.88311386	2.39879775
	10.355000	9.98042681	9.98550841	7.829E-007	1.88304722	2.39875126
	10.650000	9.98042521	9.98550921	7.734E-007	1.88296974	2.39874625
	10.945000	9.98042621	9.98550901	7.702E-007	1.88307762	2.39876819
	11.240000	9.98042641	9.98550881	7.748E-007	1.88304067	2.39877844
	11.530000	9.98042741	9.98550781	7.937E-007	1.88311708	2.39879155
	11.810000	9.98042621	9.98550941	7.722E-007	1.88305771	2.39875579
	12.095000	9.98042681	9.98550861	7.710E-007	1.88318467	2.39882660
	12.385000	9.98042481	9.98550961	7.538E-007	1.88309169	2.39876866
	12.675000	9.98042721	9.98550821	7.835E-007	1.88315189	2.39882207
	12.965000	9.98042601	9.98550941	7.571E-007	1.88306391	2.39878464
	13.250000	9.98042621	9.98550841	7.830E-007	1.88321292	2.39889121
	13.535000	9.98042601	9.98550861	7.671E-007	1.88326418	2.39885259
	13.835000	9.98042601	9.98550821	7.762E-007	1.88325620	2.39892364
	14.130000	9.98042581	9.98550841	7.707E-007	1.88323629	2.39887929
	14.425000	9.98042721	9.98550761	7.750E-007	1.88335228	2.39889216
	14.725000	9.98042521	9.98550901	7.631E-007	1.88321733	2.39891768
	15.010000	9.98042581	9.98550801	7.705E-007	1.88329434	2.39892268
	15.295000	9.98042561	9.98550841	7.848E-007	1.88323379	2.39895463
	15.585000	9.98042381	9.98548721	1.041E-006	1.88312268	2.39995956
	15.880000	9.98041701	9.98548701	1.147E-006	1.88308203	2.39998531
	16.175000	9.98041601	9.98548641	1.142E-006	1.88296306	2.39991474
	16.465000	9.98041681	9.98548581	1.157E-006	1.88286853	2.39993215
	16.745000	9.98041821	9.98548421	1.176E-006	1.88279080	2.39994359
	17.025000	9.98041921	9.98548361	1.162E-006	1.88266516	2.39986515
	17.315000	9.98041681	9.98548581	1.118E-006	1.88269579	2.39983058
	17.600000	9.98041781	9.98548541	1.128E-006	1.88261139	2.39983225
	17.885000	9.98041801	9.98548501	1.121E-006	1.88252091	2.39979911
	18.175000	9.98041821	9.98548441	1.122E-006	1.88253272	2.39986706
	18.465000	9.98041901	9.98548441	1.123E-006	1.88243902	2.39979410
	18.755000	9.98041841	9.98548401	1.139E-006	1.88244128	2.39982343
	19.040000	9.98041941	9.98548341	1.143E-006	1.88245654	2.39983845
	19.325000	9.98041861	9.98548381	1.132E-006	1.88245225	2.39987493
	19.615000	9.98041781	9.98548441	1.117E-006	1.88246346	2.39990640
	19.895000	9.98041881	9.98548341	1.138E-006	1.88247538	2.39978862
	20.175000	9.98041841	9.98548361	1.133E-006	1.88238788	2.39980960
	20.465000	9.98041801	9.98548421	1.138E-006	1.88249195	2.40009475
	20.755000	9.98041801	9.98548201	1.129E-006	1.88251960	2.40015292
	21.035000	9.98041981	9.98548021	1.694E-006	1.88250625	2.40016627
	21.315000	9.98041701	9.98548281	1.082E-006	1.88250411	2.40016174
	21.600000	9.98041781	9.98548221	1.090E-006	1.88245118	2.40013576
	21.885000	9.98041921	9.98550141	8.274E-007	1.88278377	2.39909482
	22.169000	9.98042381	9.98550001	7.872E-007	1.88286316	2.39913130
	22.439000	9.98042341	9.98550001	7.734E-007	1.88293684	2.39915109
	22.717000	9.98042481	9.98550021	7.937E-007	1.88286662	2.39913082
	23.000000	9.98042421	9.98550021	7.920E-007	1.88289177	2.39913535
	23.269500	9.98042401	9.98550101	7.868E-007	1.88289154	2.39905477
	23.548000	9.98042281	9.98550201	7.683E-007	1.88289237	2.39913058
	23.838000	9.98042341	9.98550161	7.803E-007	1.88284397	2.39901805
	24.128000	9.98042401	9.98550221	7.808E-007	1.88280308	2.39895368
	24.413000	9.98042441	9.98550241	7.856E-007	1.88287103	2.39900494
	24.698000	9.98042421	9.98550281	7.738E-007	1.88289428	2.39899421
	24.983000	9.98042361	9.98550341	7.754E-007	1.88291001	2.39898920
	25.263000	9.98042461	9.98550361	7.749E-007	1.88290620	2.39896917
	25.538000	9.98042381	9.98550461	7.652E-007	1.88289905	2.39891267
	25.828000	9.98042421	9.98550421	7.768E-007	1.88295949	2.39893603
	26.128000	9.98042401	9.98550521	7.612E-007	1.88287187	2.39887357
	26.413000	9.98042461	9.98550481	7.855E-007	1.88295853	2.39891624
	26.698000	9.98042421	9.98550541	7.710E-007	1.88304853	2.39888978
	26.978000	9.98042281	9.98550561	7.723E-007	1.88318992	2.39894795
	27.258000	9.98042341	9.98550581	7.800E-007	1.88311613	2.39886951
	27.548000	9.98042381	9.98550681	7.771E-007	1.88307595	2.39890099
	27.838000	9.98042461	9.98550561	7.919E-007	1.88323891	2.39889026
	28.118000	9.98042321	9.98550641	7.793E-007	1.88337731	2.39890575
	28.403000	9.98042241	9.98550701	7.701E-007	1.88333523	2.39878058
	28.698000	9.98042221	9.98550741	7.667E-007	1.88341284	2.39881682
	28.998000	9.98042121	9.98550721	7.624E-007	1.88344312	2.39885116
	29.293000	9.98042201	9.98550701	7.751E-007	1.88347256	2.39885616
	29.578000	9.98042201	9.98550741	7.714E-007	1.88349426	2.39882779
	29.878000	9.98042181	9.98550741	7.792E-007	1.88347280	2.39872575
	30.173000	9.98042181	9.98550741	7.825E-007	1.88345599	2.39874053
	30.458000	9.98042161	9.98550781	7.701E-007	1.88351214	2.39874530
	30.748000	9.98042181	9.98550741	7.761E-007	1.88349152	2.39873743
	31.043000	9.98042221	9.98550741	7.761E-007	1.88349628	2.39867640
	31.338000	9.98042041	9.98550841	7.650E-007	1.88351893	2.39877558
	31.628000	9.98042181	9.98550841	7.779E-007	1.88354337	2.39871097
	31.918000	9.98042221	9.98550821	7.768E-007	1.88351619	2.39864850
	32.218000	9.98042121	9.98550821	7.804E-007	1.88353431	2.39868283
	32.513000	9.98042161	9.98550821	7.825E-007	1.88347709	2.39866066
	32.798000	9.98042181	9.98550821	7.831E-007	1.88354218	2.39872026
	33.093000	9.98042041	9.98550861	7.642E-007	1.88357449	2.39874530
	33.388000	9.98042181	9.98550821	7.783E-007	1.88353121	2.39859319
	33.683000	9.98042161	9.98550821	7.771E-007	1.88344634	2.39862084
	33.968000	9.98042261	9.98550781	7.760E-007	1.88335931	2.39858198
	34.248000	9.98042181	9.98550921	7.707E-007	1.88333654	2.39864206
	34.548000	9.98042221	9.98550881	7.714E-007	1.88340819	2.39863467
	34.838000	9.98042141	9.98550941	7.613E-007	1.88340962	2.39860415
	35.118000	9.98042181	9.98550861	7.705E-007	1.88340282	2.39863110
	35.403000	9.98042281	9.98550841	7.855E-007	1.88340330	2.39860296
	35.688000	9.98042301	9.98550821	7.935E-007	1.88339269	2.39851785
	35.968000	9.98042321	9.98550821	7.929E-007	1.88338292	2.39858508
	36.258000	9.98042081	9.98550961	7.650E-007	1.88337135	2.39855099
	36.548000	9.98042281	9.98550821	7.790E-007	1.88338053	2.39856982
	36.828000	9.98042301	9.98550821	7.903E-007	1.88337374	2.39858937
	37.118000	9.98042301	9.98550821	7.813E-007	1.88339686	2.39858007
	37.418000	9.98042161	9.98550921	7.592E-007	1.88337708	2.39856362
	37.713000	9.98042121	9.98550981	7.583E-007	1.88327622	2.39851499
	37.993000	9.98042221	9.98550901	7.789E-007	1.88339043	2.39856172
	38.278000	9.98042141	9.98550921	7.715E-007	1.88335645	2.39857817
	38.568000	9.98042201	9.98550861	7.791E-007	1.88331223	2.39852309
	38.848000	9.98042241	9.98550861	7.702E-007	1.88337147	2.39855242
	39.128000	9.98042121	9.98550921	7.715E-007	1.88330626	2.39855528
	39.423000	9.98042121	9.98550941	7.673E-007	1.88332832	2.39852238
	39.718000	9.98042001	9.98550961	7.461E-007	1.88337994	2.39863205
	40.008000	9.98042061	9.98550981	7.574E-007	1.88338768	2.39863610
	40.298000	9.98042241	9.98550821	7.806E-007	1.88345075	2.39864874
	40.593000	9.98042141	9.98550941	7.729E-007	1.88336885	2.39862132
	40.888000	9.98042141	9.98550941	7.612E-007	1.88339591	2.39859843
	41.183000	9.98042041	9.98550981	7.456E-007	1.88335693	2.39855385
	41.478000	9.98042181	9.98550901	7.695E-007	1.88343251	2.39865088
	41.768000	9.98042261	9.98550821	7.787E-007	1.88340366	2.39861369
	42.058000	9.98042281	9.98550841	7.819E-007	1.88340175	2.39853954
	42.343000	9.98042121	9.98550881	7.623E-007	1.88341844	2.39861035
	42.638000	9.98042161	9.98550881	7.714E-007	1.88338041	2.39859295
	42.938000	9.98042121	9.98550921	7.547E-007	1.88336730	2.39855218
	43.228000	9.98042041	9.98550981	7.577E-007	1.88334262	2.39855218
	43.523000	9.98042121	9.98550941	7.746E-007	1.88330185	2.39851642
	43.823000	9.98042121	9.98550921	7.624E-007	1.88336778	2.39860535
	44.108000	9.98042181	9.98550881	7.768E-007	1.88336360	2.39853835
	44.398000	9.98042181	9.98550921	7.776E-007	1.88333106	2.39854264
	44.698000	9.98042101	9.98550961	7.644E-007	1.88333678	2.39853001
	44.983000	9.98042121	9.98550941	7.720E-007	1.88346732	2.39866924
	45.268000	9.98042181	9.98550901	7.795E-007	1.88348711	2.39864969
	45.558000	9.98042061	9.98550961	7.683E-007	1.88341296	2.39860415
	45.853000	9.98042081	9.98550941	7.614E-007	1.88339448	2.39865589
	46.143000	9.98042181	9.98550841	7.819E-007	1.88349247	2.39867616
	46.433000	9.98042101	9.98550921	7.635E-007	1.88340354	2.39862704
	46.728000	9.98042221	9.98550881	7.780E-007	1.88345313	2.39864993
	47.023000	9.98042161	9.98550901	7.803E-007	1.88343143	2.39862514
	47.308000	9.98042221	9.98550921	7.808E-007	1.88340366	2.39861202
	47.588000	9.98042181	9.98550881	7.692E-007	1.88342190	2.39861274
	47.878000	9.98042121	9.98550941	7.650E-007	1.88342035	2.39863658
	48.168000	9.98042101	9.98550961	7.588E-007	1.88344455	2.39863014
	48.458000	9.98042181	9.98550961	7.672E-007	1.88332391	2.39864731
	48.743000	9.98042121	9.98550941	7.681E-007	1.88351512	2.39867759
	49.038000	9.98042181	9.98550881	7.785E-007	1.88341963	2.39861846
	49.338000	9.98042261	9.98550861	7.824E-007	1.88345325	2.39862895
	49.623000	9.98042121	9.98550941	7.709E-007	1.88343406	2.39863110
	49.908000	9.98042121	9.98550941	7.794E-007	1.88345063	2.39864445
	50.208000	9.98042161	9.98550901	7.722E-007	1.88348043	2.39860678
	50.503000	9.98042161	9.98550921	7.706E-007	1.88343823	2.39866185
	50.788000	9.98042141	9.98550921	7.756E-007	1.88341904	2.39863706
	51.083000	9.98042121	9.98550961	7.632E-007	1.88346386	2.39864969
	51.378000	9.98042141	9.98550901	7.672E-007	1.88345587	2.39863706
	51.678000	9.98042081	9.98550981	7.570E-007	1.88343978	2.39862394
	51.973000	9.98042121	9.98550941	7.663E-007	1.88341868	2.39857292
	52.258000	9.98042241	9.98550881	7.813E-007	1.88345253	2.39862037
	52.548000	9.98042201	9.98550881	7.810E-007	1.88342798	2.39859509
	52.838000	9.98042061	9.98550941	7.540E-007	1.88343871	2.39863586
	53.133000	9.98042121	9.98550961	7.672E-007	1.88341892	2.39861107
	53.428000	9.98042161	9.98550901	7.755E-007	1.88346624	2.39866734
	53.718000	9.98042121	9.98550941	7.754E-007	1.88342321	2.39866233
	54.013000	9.98042121	9.98550881	7.750E-007	1.88342249	2.39857411
	54.308000	9.98042101	9.98550921	7.611E-007	1.88345420	2.39864182
	54.598000	9.98042141	9.98550941	7.697E-007	1.88346004	2.39863372
	54.888000	9.98042041	9.98550981	7.556E-007	1.88345969	2.39868093
	55.173000	9.98042201	9.98550881	7.796E-007	1.88345587	2.39866686
	55.458000	9.98042161	9.98550901	7.796E-007	1.88350070	2.39864326
	55.748000	9.98042081	9.98551001	7.579E-007	1.88344407	2.39864326
	56.043000	9.98042181	9.98550921	7.781E-007	1.88343060	2.39861774
	56.338000	9.98042201	9.98550841	7.831E-007	1.88348043	2.39865208
	56.633000	9.98042161	9.98550921	7.721E-007	1.88344717	2.39863276
	56.928000	9.98042081	9.98550961	7.538E-007	1.88347387	2.39867258
	57.218000	9.98042021	9.98551001	7.489E-007	1.88348007	2.39870286
	57.508000	9.98042121	9.98550921	7.699E-007	1.88339484	2.39857340
	57.798000	9.98042141	9.98550881	7.792E-007	1.88342249	2.39858532
	58.083000	9.98042161	9.98550881	7.699E-007	1.88339102	2.39857316
	58.368000	9.98042201	9.98550901	7.845E-007	1.88339984	2.39857650
	58.658000	9.98042261	9.98550881	7.840E-007	1.88340843	2.39856911
	58.948000	9.98042161	9.98550881	7.726E-007	1.88340175	2.39858961
	59.238000	9.98042141	9.98550921	7.719E-007	1.88339293	2.39854217
	59.523000	9.98042161	9.98550881	7.846E-007	1.88335884	2.39858818
	59.808000	9.98042181	9.98550921	7.772E-007	1.88342631	2.39856482
	60.098000	9.98042101	9.98550961	7.646E-007	1.88336980	2.39854932
	60.388000	9.98042161	9.98550961	7.838E-007	1.88340044	2.39863205
	60.673000	9.98042121	9.98550901	7.756E-007	1.88357949	2.39868546
	60.958000	9.98042141	9.98550861	7.805E-007	1.88368058	2.39865065
	61.248000	9.98042121	9.98550901	7.747E-007	1.88365281	2.39866972
	61.538000	9.98042161	9.98550921	7.953E-007	1.88364434	2.39862013
	61.828000	9.98042101	9.98550921	7.745E-007	1.88365614	2.39863110
	62.123000	9.98042081	9.98550941	7.763E-007	1.88362288	2.39867663
	62.418000	9.98042121	9.98550921	7.761E-007	1.88366854	2.39861608
	62.708000	9.98042041	9.98550981	7.659E-007	1.88364971	2.39867234
	63.003000	9.98042081	9.98550941	7.734E-007	1.88364792	2.39866161
	63.298000	9.98042061	9.98550961	7.670E-007	1.88365316	2.39861989
	63.588000	9.98042041	9.98550981	7.714E-007	1.88360453	2.39863253
	63.873000	9.98042141	9.98550841	7.863E-007	1.88365948	2.39868522
	64.168000	9.98042021	9.98551001	7.676E-007	1.88361871	2.39868021
	64.468000	9.98042161	9.98550881	7.821E-007	1.88370991	2.39870167
	64.753000	9.98042041	9.98550961	7.705E-007	1.88365304	2.39865541
	65.038000	9.98042041	9.98550941	7.600E-007	1.88367057	2.39869857
	65.338000	9.98042061	9.98550901	7.742E-007	1.88366663	2.39868402
	65.633000	9.98042101	9.98550921	7.768E-007	1.88365746	2.39865255
	65.918000	9.98042021	9.98550981	7.595E-007	1.88363922	2.39865446
	66.208000	9.98042041	9.98550961	7.620E-007	1.88365269	2.39868522
	66.498000	9.98042101	9.98550881	7.810E-007	1.88366783	2.39867568
	66.793000	9.98042041	9.98550941	7.698E-007	1.88368165	2.39865589
	67.088000	9.98042021	9.98550981	7.593E-007	1.88370240	2.39867139
	67.378000	9.98042001	9.98550981	7.562E-007	1.88366914	2.39863300
	67.663000	9.98042121	9.98550901	7.843E-007	1.88364446	2.39867330
	67.948000	9.98042081	9.98550941	7.580E-007	1.88370502	2.39869285
	68.248000	9.98042041	9.98550941	7.755E-007	1.88365555	2.39865088
	68.543000	9.98042121	9.98550901	7.774E-007	1.88368893	2.39865613
	68.828000	9.98042041	9.98550941	7.609E-007	1.88366354	2.39867902
	69.118000	9.98042041	9.98550961	7.645E-007	1.88368499	2.39866209
	69.418000	9.98042001	9.98550981	7.636E-007	1.88364542	2.39865327
	69.713000	9.98042141	9.98550881	7.878E-007	1.88368750	2.39870262
	69.998000	9.98042061	9.98550941	7.749E-007	1.88367212	2.39867616
	70.293000	9.98042101	9.98550881	7.826E-007	1.88360882	2.39862204
	70.588000	9.98041981	9.98550901	7.645E-007	1.88367426	2.39869237
	70.888000	9.98042021	9.98550921	7.726E-007	1.88368571	2.39870238
	71.183000	9.98042081	9.98550941	7.717E-007	1.88365114	2.39864349
	71.468000	9.98042121	9.98550901	7.780E-007	1.88367414	2.39866877
	71.758000	9.98042041	9.98550941	7.619E-007	1.88365877	2.39868402
	72.053000	9.98042061	9.98550901	7.711E-007	1.88368380	2.39870882
	72.348000	9.98042041	9.98550961	7.616E-007	1.88367057	2.39865589
	72.648000	9.98042121	9.98550901	7.787E-007	1.88364816	2.39866757
	72.943000	9.98042061	9.98550921	7.696E-007	1.88365662	2.39867830
	73.228000	9.98042041	9.98550941	7.752E-007	1.88365376	2.39866877
	73.518000	9.98042141	9.98550881	7.808E-007	1.88365686	2.39869738
	73.818000	9.98042041	9.98550961	7.647E-007	1.88363934	2.39862561
	74.113000	9.98042121	9.98550921	7.676E-007	1.88366652	2.39864635
	74.398000	9.98042081	9.98550941	7.747E-007	1.88360476	2.39860821
	74.688000	9.98042041	9.98550901	7.644E-007	1.88366139	2.39867115
	74.983000	9.98042081	9.98550941	7.661E-007	1.88365877	2.39863682
	75.278000	9.98042021	9.98550961	7.699E-007	1.88366008	2.39867496
	75.568000	9.98042021	9.98551001	7.629E-007	1.88360989	2.39862108
	75.863000	9.98042021	9.98550961	7.644E-007	1.88359976	2.39860177
	76.158000	9.98042181	9.98550861	7.844E-007	1.88366520	2.39866233
	76.448000	9.98042041	9.98550901	7.736E-007	1.88365698	2.39863896
	76.733000	9.98041981	9.98550981	7.564E-007	1.88356698	2.39855266
	77.028000	9.98042001	9.98550941	7.708E-007	1.88358772	2.39861727
	77.328000	9.98042181	9.98550861	7.792E-007	1.88358927	2.39855862
	77.613000	9.98042041	9.98550981	7.744E-007	1.88353872	2.39855170
	77.908000	9.98041941	9.98551001	7.548E-007	1.88364899	2.39865446
	78.203000	9.98042061	9.98550881	7.755E-007	1.88367856	2.39867783
	78.488000	9.98042021	9.98550921	7.627E-007	1.88352990	2.39849186
	78.788000	9.98042041	9.98550921	7.739E-007	1.88355339	2.39855099
	79.083000	9.98042021	9.98550921	7.677E-007	1.88355231	2.39854407
	79.368000	9.98042021	9.98550941	7.615E-007	1.88358474	2.39857101
	79.658000	9.98042001	9.98550981	7.619E-007	1.88351440	2.39853907
	79.948000	9.98042061	9.98550941	7.655E-007	1.88364422	2.39863253
	80.243000	9.98042041	9.98550941	7.718E-007	1.88361025	2.39862776
	80.538000	9.98042041	9.98550901	7.683E-007	1.88366115	2.39867020
	80.828000	9.98042041	9.98550961	7.723E-007	1.88356972	2.39859915
	81.118000	9.98042001	9.98551001	7.670E-007	1.88351214	2.39854646
	81.403000	9.98042061	9.98550921	7.689E-007	1.88363767	2.39869237
	81.688000	9.98042041	9.98550941	7.725E-007	1.88352942	2.39852881
	81.978000	9.98042121	9.98550921	7.693E-007	1.88345063	2.39859366
	82.268000	9.98042041	9.98551001	7.637E-007	1.88347924	2.39856911
	82.558000	9.98042041	9.98550941	7.648E-007	1.88346601	2.39856720
	82.843000	9.98042161	9.98550841	7.830E-007	1.88356411	2.39859128
	83.138000	9.98042141	9.98550921	7.767E-007	1.88349199	2.39859390
	83.438000	9.98042041	9.98550921	7.615E-007	1.88352442	2.39859200
	83.723000	9.98042001	9.98550981	7.548E-007	1.88354969	2.39858675
